HA:Mon-Nmer-Mmer : MW(A)=6.000E+4, C(A)=1.00E-06, v(A)=0.730, E(A)=197400, dens=1.0030, N=2, LnK1=12.0000, M=4, LnK2=12.0000
R 8 20.0 16000 0099999 1.0000E12 280 21
   6.3500   4.88508E-003    1.00000E-002
   6.3510  -1.65278E-003    1.00000E-002
   6.3520   7.75355E-003    1.00000E-002
   6.3530   2.06581E-002    1.00000E-002
   6.3540   1.65389E-002    1.00000E-002
   6.3550   6.15791E-003    1.00000E-002
   6.3560   1.48855E-002    1.00000E-002
   6.3570   3.47983E-003    1.00000E-002
   6.3580  -3.22607E-003    1.00000E-002
   6.3590   7.15681E-003    1.00000E-002
   6.3600   1.07496E-002    1.00000E-002
   6.3610   1.86008E-002    1.00000E-002
   6.3620   3.13261E-003    1.00000E-002
   6.3630  -7.76725E-005    1.00000E-002
   6.3640   2.12260E-002    1.00000E-002
   6.3650   2.28283E-002    1.00000E-002
   6.3660   1.44110E-002    1.00000E-002
   6.3670  -7.16002E-003    1.00000E-002
   6.3680  -1.68166E-003    1.00000E-002
   6.3690   3.64734E-003    1.00000E-002
   6.3700   1.69949E-002    1.00000E-002
   6.3710   9.58324E-003    1.00000E-002
   6.3720   9.63854E-003    1.00000E-002
   6.3730   1.01366E-002    1.00000E-002
   6.3740   9.05936E-004    1.00000E-002
   6.3750   2.01059E-002    1.00000E-002
   6.3760   7.29254E-003    1.00000E-002
   6.3770   4.08316E-003    1.00000E-002
   6.3780   2.54607E-002    1.00000E-002
   6.3790   1.10508E-003    1.00000E-002
   6.3800   2.53798E-002    1.00000E-002
   6.3810   1.04570E-002    1.00000E-002
   6.3820   3.56970E-002    1.00000E-002
   6.3830   3.59588E-002    1.00000E-002
   6.3840   3.47501E-002    1.00000E-002
   6.3850   2.66336E-002    1.00000E-002
   6.3860   2.20786E-002    1.00000E-002
   6.3870   3.02474E-002    1.00000E-002
   6.3880   2.46880E-002    1.00000E-002
   6.3890   2.43685E-002    1.00000E-002
   6.3900   7.44700E-003    1.00000E-002
   6.3910   3.87560E-002    1.00000E-002
   6.3920   2.79787E-002    1.00000E-002
   6.3930   6.85414E-003    1.00000E-002
   6.3940   2.19178E-002    1.00000E-002
   6.3950   2.95757E-002    1.00000E-002
   6.3960   2.79452E-002    1.00000E-002
   6.3970   2.42408E-002    1.00000E-002
   6.3980   3.77187E-002    1.00000E-002
   6.3990   7.11713E-003    1.00000E-002
   6.4000   1.35899E-002    1.00000E-002
   6.4010   7.74973E-003    1.00000E-002
   6.4020   2.19519E-002    1.00000E-002
   6.4030   2.42354E-002    1.00000E-002
   6.4040   3.77963E-002    1.00000E-002
   6.4050   3.59676E-002    1.00000E-002
   6.4060   1.41064E-002    1.00000E-002
   6.4070   3.78658E-002    1.00000E-002
   6.4080   3.63053E-002    1.00000E-002
   6.4090   3.43250E-002    1.00000E-002
   6.4100   3.53932E-002    1.00000E-002
   6.4110   1.19932E-002    1.00000E-002
   6.4120   3.74632E-002    1.00000E-002
   6.4130   1.63657E-002    1.00000E-002
   6.4140   3.41017E-002    1.00000E-002
   6.4150   4.00448E-002    1.00000E-002
   6.4160   5.04144E-002    1.00000E-002
   6.4170   3.98096E-002    1.00000E-002
   6.4180   3.08813E-002    1.00000E-002
   6.4190   2.79118E-002    1.00000E-002
   6.4200   3.38582E-002    1.00000E-002
   6.4210   4.41846E-002    1.00000E-002
   6.4220   3.65641E-002    1.00000E-002
   6.4230   3.66575E-002    1.00000E-002
   6.4240   3.32386E-002    1.00000E-002
   6.4250   3.30448E-002    1.00000E-002
   6.4260   4.75655E-002    1.00000E-002
   6.4270   4.78811E-002    1.00000E-002
   6.4280   2.94957E-002    1.00000E-002
   6.4290   5.12152E-002    1.00000E-002
   6.4300   5.64403E-002    1.00000E-002
   6.4310   2.98786E-002    1.00000E-002
   6.4320   4.18490E-002    1.00000E-002
   6.4330   4.21670E-002    1.00000E-002
   6.4340   5.47980E-002    1.00000E-002
   6.4350   3.20080E-002    1.00000E-002
   6.4360   4.82189E-002    1.00000E-002
   6.4370   4.05484E-002    1.00000E-002
   6.4380   4.70817E-002    1.00000E-002
   6.4390   3.59083E-002    1.00000E-002
   6.4400   6.28690E-002    1.00000E-002
   6.4410   5.71581E-002    1.00000E-002
   6.4420   4.36906E-002    1.00000E-002
   6.4430   3.91669E-002    1.00000E-002
   6.4440   6.76580E-002    1.00000E-002
   6.4450   4.90050E-002    1.00000E-002
   6.4460   5.84271E-002    1.00000E-002
   6.4470   2.75822E-002    1.00000E-002
   6.4480   4.11604E-002    1.00000E-002
   6.4490   4.56915E-002    1.00000E-002
   6.4500   5.02420E-002    1.00000E-002
   6.4510   6.20454E-002    1.00000E-002
   6.4520   3.53473E-002    1.00000E-002
   6.4530   4.12295E-002    1.00000E-002
   6.4540   4.77361E-002    1.00000E-002
   6.4550   5.39555E-002    1.00000E-002
   6.4560   4.36387E-002    1.00000E-002
   6.4570   4.08376E-002    1.00000E-002
   6.4580   5.59539E-002    1.00000E-002
   6.4590   3.69964E-002    1.00000E-002
   6.4600   4.53177E-002    1.00000E-002
   6.4610   6.66044E-002    1.00000E-002
   6.4620   5.05003E-002    1.00000E-002
   6.4630   4.92842E-002    1.00000E-002
   6.4640   6.44250E-002    1.00000E-002
   6.4650   5.32002E-002    1.00000E-002
   6.4660   5.44831E-002    1.00000E-002
   6.4670   6.89271E-002    1.00000E-002
   6.4680   7.02713E-002    1.00000E-002
   6.4690   4.34520E-002    1.00000E-002
   6.4700   7.48813E-002    1.00000E-002
   6.4710   5.96916E-002    1.00000E-002
   6.4720   6.69963E-002    1.00000E-002
   6.4730   6.09477E-002    1.00000E-002
   6.4740   7.56310E-002    1.00000E-002
   6.4750   6.20163E-002    1.00000E-002
   6.4760   6.80658E-002    1.00000E-002
   6.4770   7.76988E-002    1.00000E-002
   6.4780   6.76956E-002    1.00000E-002
   6.4790   6.49044E-002    1.00000E-002
   6.4800   7.78144E-002    1.00000E-002
   6.4810   7.25893E-002    1.00000E-002
   6.4820   6.91399E-002    1.00000E-002
   6.4830   6.21423E-002    1.00000E-002
   6.4840   7.90257E-002    1.00000E-002
   6.4850   7.35953E-002    1.00000E-002
   6.4860   7.77619E-002    1.00000E-002
   6.4870   7.25424E-002    1.00000E-002
   6.4880   5.83922E-002    1.00000E-002
   6.4890   8.50101E-002    1.00000E-002
   6.4900   8.78525E-002    1.00000E-002
   6.4910   8.78636E-002    1.00000E-002
   6.4920   7.62127E-002    1.00000E-002
   6.4930   6.56623E-002    1.00000E-002
   6.4940   8.82233E-002    1.00000E-002
   6.4950   8.32409E-002    1.00000E-002
   6.4960   8.60245E-002    1.00000E-002
   6.4970   8.86418E-002    1.00000E-002
   6.4980   9.73584E-002    1.00000E-002
   6.4990   9.95496E-002    1.00000E-002
   6.5000   1.03941E-001    1.00000E-002
   6.5010   1.04475E-001    1.00000E-002
   6.5020   7.10851E-002    1.00000E-002
   6.5030   7.88778E-002    1.00000E-002
   6.5040   9.10177E-002    1.00000E-002
   6.5050   9.37263E-002    1.00000E-002
   6.5060   9.53775E-002    1.00000E-002
   6.5070   1.09848E-001    1.00000E-002
   6.5080   1.17064E-001    1.00000E-002
   6.5090   1.03936E-001    1.00000E-002
   6.5100   9.07468E-002    1.00000E-002
   6.5110   1.02211E-001    1.00000E-002
   6.5120   8.49314E-002    1.00000E-002
   6.5130   1.21480E-001    1.00000E-002
   6.5140   1.10972E-001    1.00000E-002
   6.5150   9.80396E-002    1.00000E-002
   6.5160   1.28734E-001    1.00000E-002
   6.5170   1.23294E-001    1.00000E-002
   6.5180   1.07816E-001    1.00000E-002
   6.5190   1.07925E-001    1.00000E-002
   6.5200   1.22708E-001    1.00000E-002
   6.5210   1.25468E-001    1.00000E-002
   6.5220   1.30387E-001    1.00000E-002
   6.5230   1.10721E-001    1.00000E-002
   6.5240   1.43191E-001    1.00000E-002
   6.5250   1.50096E-001    1.00000E-002
   6.5260   1.32117E-001    1.00000E-002
   6.5270   1.44201E-001    1.00000E-002
   6.5280   1.31692E-001    1.00000E-002
   6.5290   1.27317E-001    1.00000E-002
   6.5300   1.34729E-001    1.00000E-002
   6.5310   1.52343E-001    1.00000E-002
   6.5320   1.43565E-001    1.00000E-002
   6.5330   1.37171E-001    1.00000E-002
   6.5340   1.44724E-001    1.00000E-002
   6.5350   1.59690E-001    1.00000E-002
   6.5360   1.61143E-001    1.00000E-002
   6.5370   1.50545E-001    1.00000E-002
   6.5380   1.72433E-001    1.00000E-002
   6.5390   1.50426E-001    1.00000E-002
   6.5400   1.76364E-001    1.00000E-002
   6.5410   1.59726E-001    1.00000E-002
   6.5420   1.85341E-001    1.00000E-002
   6.5430   1.60812E-001    1.00000E-002
   6.5440   1.73612E-001    1.00000E-002
   6.5450   1.80547E-001    1.00000E-002
   6.5460   1.84485E-001    1.00000E-002
   6.5470   1.87285E-001    1.00000E-002
   6.5480   1.81529E-001    1.00000E-002
   6.5490   1.82530E-001    1.00000E-002
   6.5500   1.87721E-001    1.00000E-002
   6.5510   1.90970E-001    1.00000E-002
   6.5520   1.93215E-001    1.00000E-002
   6.5530   1.84840E-001    1.00000E-002
   6.5540   1.96765E-001    1.00000E-002
   6.5550   2.00609E-001    1.00000E-002
   6.5560   2.13546E-001    1.00000E-002
   6.5570   1.99751E-001    1.00000E-002
   6.5580   2.05616E-001    1.00000E-002
   6.5590   2.13491E-001    1.00000E-002
   6.5600   2.25425E-001    1.00000E-002
   6.5610   2.09751E-001    1.00000E-002
   6.5620   2.09981E-001    1.00000E-002
   6.5630   2.39201E-001    1.00000E-002
   6.5640   2.24237E-001    1.00000E-002
   6.5650   2.27616E-001    1.00000E-002
   6.5660   2.28126E-001    1.00000E-002
   6.5670   2.55531E-001    1.00000E-002
   6.5680   2.44238E-001    1.00000E-002
   6.5690   2.41997E-001    1.00000E-002
   6.5700   2.61126E-001    1.00000E-002
   6.5710   2.64496E-001    1.00000E-002
   6.5720   2.55754E-001    1.00000E-002
   6.5730   2.59395E-001    1.00000E-002
   6.5740   2.86102E-001    1.00000E-002
   6.5750   2.75477E-001    1.00000E-002
   6.5760   2.82333E-001    1.00000E-002
   6.5770   2.90477E-001    1.00000E-002
   6.5780   2.95385E-001    1.00000E-002
   6.5790   2.82863E-001    1.00000E-002
   6.5800   2.87890E-001    1.00000E-002
   6.5810   2.94813E-001    1.00000E-002
   6.5820   3.02014E-001    1.00000E-002
   6.5830   3.06637E-001    1.00000E-002
   6.5840   3.08060E-001    1.00000E-002
   6.5850   3.27345E-001    1.00000E-002
   6.5860   3.27719E-001    1.00000E-002
   6.5870   3.22773E-001    1.00000E-002
   6.5880   3.33334E-001    1.00000E-002
   6.5890   3.40855E-001    1.00000E-002
   6.5900   3.43899E-001    1.00000E-002
   6.5910   3.63716E-001    1.00000E-002
   6.5920   3.64728E-001    1.00000E-002
   6.5930   3.61098E-001    1.00000E-002
   6.5940   3.69731E-001    1.00000E-002
   6.5950   3.66734E-001    1.00000E-002
   6.5960   3.90092E-001    1.00000E-002
   6.5970   3.93608E-001    1.00000E-002
   6.5980   4.03032E-001    1.00000E-002
   6.5990   3.97945E-001    1.00000E-002
   6.6000   4.06905E-001    1.00000E-002
   6.6010   4.24083E-001    1.00000E-002
   6.6020   4.25071E-001    1.00000E-002
   6.6030   4.14838E-001    1.00000E-002
   6.6040   4.34914E-001    1.00000E-002
   6.6050   4.39370E-001    1.00000E-002
   6.6060   4.55595E-001    1.00000E-002
   6.6070   4.65989E-001    1.00000E-002
   6.6080   4.55947E-001    1.00000E-002
   6.6090   4.69457E-001    1.00000E-002
   6.6100   4.74929E-001    1.00000E-002
   6.6110   4.88335E-001    1.00000E-002
   6.6120   4.95376E-001    1.00000E-002
   6.6130   5.04966E-001    1.00000E-002
   6.6140   5.01378E-001    1.00000E-002
   6.6150   5.12393E-001    1.00000E-002
   6.6160   5.13022E-001    1.00000E-002
   6.6170   5.36654E-001    1.00000E-002
   6.6180   5.32539E-001    1.00000E-002
   6.6190   5.48147E-001    1.00000E-002
   6.6200   5.54208E-001    1.00000E-002
   6.6210   5.68775E-001    1.00000E-002
   6.6220   5.75456E-001    1.00000E-002
   6.6230   5.98560E-001    1.00000E-002
   6.6240   5.98146E-001    1.00000E-002
   6.6250   6.04531E-001    1.00000E-002
   6.6260   6.21056E-001    1.00000E-002
   6.6270   6.22658E-001    1.00000E-002
   6.6280   6.22785E-001    1.00000E-002
   6.6290   6.48017E-001    1.00000E-002
   6.6300   6.69540E-001    1.00000E-002
   6.6310   6.82680E-001    1.00000E-002
   6.6320   6.88458E-001    1.00000E-002
   6.6330   7.06448E-001    1.00000E-002
   6.6340   7.24849E-001    1.00000E-002
   6.6350   7.24047E-001    1.00000E-002
   6.6360   7.20018E-001    1.00000E-002
   6.6370   7.65570E-001    1.00000E-002
   6.6380   7.56991E-001    1.00000E-002
   6.6390   7.66608E-001    1.00000E-002
   6.6400   7.94166E-001    1.00000E-002
   6.6410   7.99301E-001    1.00000E-002
   6.6420   8.11829E-001    1.00000E-002
   6.6430   8.29918E-001    1.00000E-002
   6.6440   8.60968E-001    1.00000E-002
   6.6450   8.51832E-001    1.00000E-002
   6.6460   8.69717E-001    1.00000E-002
   6.6470   8.94485E-001    1.00000E-002
   6.6480   8.97398E-001    1.00000E-002
   6.6490   9.39925E-001    1.00000E-002
   6.6500   9.45270E-001    1.00000E-002
